# RotX(deg) RotY(deg) RotZ(deg) RotYY(deg) RotZZ(deg) Distance(A)
-83.199 -23.1095 -28.1914 -11.817 -18.9841 4.83962
-92.2895 9.905 -23.8746 3.92155 -17.4834 4.91223
-67.1204 -28.6189 -34.1994 -16.2128 -17.934 4.79983
-74.2723 -18.965 -29.4833 -10.0763 -16.1385 4.88976
-81.9434 -18.9163 -32.7679 -7.66691 -16.8052 4.85404
-79.3489 -34.9446 -30.1534 -17.4683 -18.7814 4.78123
-89.8122 -12.2284 -25.4121 -3.45621 -17.5537 4.86032
-73.7932 -14.5318 -27.0084 -12.2122 -18.225 4.78195
-69.7986 -47.4501 -31.8736 -21.8551 -19.7546 4.77534
-72.9599 10.6154 -17.428 -2.44725 -12.6823 4.83285
-68.3708 -22.9956 -32.4493 -12.8359 -19.875 4.81428
-63.6729 30.5001 -3.16569 -1.89213 -11.6452 4.6774
-74.1282 59.0263 -13.0699 4.84827 -16.5429 4.41535
-98.9424 57.762 -36.2924 8.61893 -17.0772 4.5546
-41.3166 44.5892 19.1693 5.41928 -9.0655 4.58564
-65.0091 31.5203 -7.36971 -1.78519 -12.6606 4.71038
-58.3206 51.0868 4.33355 4.73857 -13.8657 4.45654
-78.2138 37.9655 -13.4783 -0.916478 -17.8822 4.58261
-73.5949 -20.6957 -25.9982 -11.5799 -18.0881 4.8792
-62.3546 -28.3132 -30.2443 -20.5171 -17.9491 4.85792
-79.5569 -14.5088 -27.4616 -5.43401 -16.7913 4.8547
-68.5314 24.501 -10.5167 3.85537 -17.8145 4.83453
-80.0277 -0.135746 -22.6696 3.90256 -16.9681 4.79791
-89.3214 7.7807 -25.5034 3.16878 -18.451 4.85786
-82.8142 -28.7538 -27.0817 -9.55658 -15.7432 4.91442
-74.6489 -26.2485 -23.8893 -10.7286 -16.5943 4.85676
-70.9823 -25.9236 -24.3687 -16.6801 -19.6856 4.83293
-74.2083 -22.3335 -36.2012 -6.96793 -16.5058 4.8319
-73.4996 -10.6404 -27.51 -1.42948 -18.8435 4.81782
-78.2427 -40.0904 -30.3646 -19.262 -19.1745 4.84734
-68.4113 -45.2054 -33.4225 -21.7368 -18.0429 4.86613
-84.1705 -26.7909 -29.2626 -9.9279 -17.149 4.82269
-90.4186 -20.6737 -28.4386 -5.63055 -17.2551 4.77071
-95.4533 -27.1298 -17.9761 -2.80148 -19.2629 4.83073
-87.8312 -16.6356 -22.2995 -10.0081 -15.4235 4.90652
-92.4726 -14.4147 -25.6038 -1.42074 -18.5582 4.7774
-78.1128 -32.1877 -34.8644 -17.2949 -18.9499 4.84561
-101.474 -7.48664 -24.2537 4.04807 -16.5587 4.72795
-70.1861 -19.859 -29.9524 -11.1644 -16.2184 4.87411
-84.005 -28.1654 -37.9534 -9.9965 -20.9783 4.81434
-84.6553 -6.16648 -31.6603 -6.47255 -19.5534 4.766
-66.3867 -19.2459 -25.0613 -11.5211 -15.4488 4.74899
-71.3155 -20.4987 -32.2398 -8.88832 -17.3431 4.90166
-70.0838 -22.2728 -24.2999 -14.5751 -17.4316 4.79423
-78.5922 -19.2864 -17.7884 -4.46499 -13.6403 4.85908
-91.6667 -16.7305 -14.2253 -4.70236 -16.8195 4.85058
-97.0891 5.25244 -21.6885 10.8967 -17.3554 4.79723
-66.6566 -26.7576 -35.5039 -16.3223 -20.3547 4.85061
-68.4355 -31.8123 -31.6395 -19.2789 -16.6439 4.7979
-90.3891 -18.6466 -16.9332 -9.13856 -13.893 4.8748
-79.3677 -27.7646 -35.7821 -14.3473 -18.0056 4.86911
-72.2379 -15.6915 -34.1274 -5.96949 -16.0335 4.88936
-74.2372 -34.4945 -28.9368 -13.0557 -15.7689 4.82162
-70.9284 -30.4575 -33.3816 -12.3131 -19.106 4.86958
-84.5153 -21.7181 -25.2798 -6.12149 -17.5289 4.80012
-73.1973 -11.6721 -28.807 -3.35042 -14.819 4.83735
-67.9462 -29.7387 -30.4394 -15.486 -17.435 4.82856
-86.0821 -5.14518 -24.8475 4.32926 -17.586 4.86687
-95.9348 -30.07 -12.2348 -12.5088 -16.7307 4.88117
-89.964 -11.7512 -24.7281 -5.63595 -19.4553 4.84862
-61.9245 -31.1768 -35.0942 -16.4103 -18.1288 4.707
-80.863 -14.2353 -27.8516 -8.22314 -16.1882 4.84666
-66.677 -22.5187 -38.3693 -14.9823 -19.3252 4.81021
-90.9949 -10.7311 -23.6343 -0.387927 -17.8521 4.83718
-73.5909 -18.199 -28.3722 -9.30736 -18.6213 4.7991
-70.728 -33.2443 -39.202 -13.8093 -20.4098 4.87508
-77.4907 -25.1136 -26.0759 -6.79805 -15.5809 4.79778
-85.4023 -27.8981 -29.7713 -5.85731 -18.4806 4.85565
-80.5256 -18.5942 -22.7481 -14.7331 -18.9715 4.79689
-71.5159 -16.9158 -23.7209 -16.0669 -18.4921 4.84765
-58.841 -17.8498 -34.4082 -18.1687 -17.9769 4.82246
-69.3956 -21.5528 -31.3489 -15.4277 -16.7805 4.91319
-96.6525 -1.46497 -27.5387 7.35416 -19.5417 4.8234
-78.0176 -27.254 -30.2998 -12.9073 -20.2758 4.87404
-87.1394 -10.0644 -21.6798 -7.44925 -16.9329 4.90188
-73.844 -24.8436 -30.5087 -10.5252 -17.9916 4.83622
-94.1993 -35.3297 -13.4931 -16.0784 -18.1955 4.76856
-98.3834 -2.76954 -20.1232 -1.79108 -15.1124 4.90868
-84.6795 -8.87579 -19.9276 -2.83354 -17.9395 4.85315
-72.7272 -25.261 -33.1672 -11.5752 -18.0491 4.77338
-84.8832 -33.7244 -24.6587 -15.2074 -17.1748 4.93041
-82.3238 -22.3194 -22.984 -2.73809 -17.7567 4.90822
-83.4684 -4.58679 -28.8663 -4.84353 -19.048 4.90029
-86.8489 -8.04752 -22.1306 -5.95233 -18.4133 4.81703
-78.0594 -25.4462 -27.6435 -6.63149 -15.5429 4.86009
-68.6848 -30.2744 -34.8211 -14.3698 -19.238 4.74489
-92.9321 -2.36265 -18.9963 -3.50888 -15.0031 4.8997
-83.1253 -16.5732 -27.4876 -0.332996 -16.9269 4.85874
-87.9881 -19.0341 -20.8682 -9.83984 -17.4632 4.97623
-81.9991 -17.3169 -22.934 -11.4012 -13.9874 4.76887
-78.277 -28.1931 -32.0004 -11.8081 -18.4208 4.75818
-84.531 -18.4562 -22.2458 -10.1207 -16.8792 4.85346
-74.8214 -19.9864 -22.4341 -11.3195 -17.2362 4.79726
-90.4169 1.95471 -21.4262 2.1928 -15.9472 4.82476
-79.7127 -18.6762 -20.7946 -9.26698 -18.893 4.75415
-82.2337 -16.9068 -21.0995 -7.12452 -16.8523 4.6944
-77.1064 -34.9711 -38.476 -17.9022 -21.7644 4.72004
-78.0552 -34.175 -34.007 -14.9187 -18.6316 4.79795
-77.9993 -14.8219 -18.4945 -4.21019 -14.4808 4.77413
-71.582 -33.0202 -28.563 -13.8629 -18.0577 4.96373
-71.5561 -30.3365 -32.4241 -19.1198 -15.9083 4.85263
-69.3036 -23.8691 -36.0113 -12.9405 -16.9481 4.81419
-81.1569 -14.3452 -31.4832 -8.25121 -17.9934 4.84885
-88.2814 -18.7816 -16.4123 -3.27369 -17.4873 4.92803
-75.1607 -22.6377 -26.6448 -11.4388 -18.5144 4.87426
-77.9275 -18.4099 -25.3407 -5.40369 -16.2317 4.80546
-86.7906 -13.4819 -27.6581 -3.24549 -17.3726 4.86375
-73.8267 -17.8703 -28.2088 -7.11743 -18.6532 4.75011
-77.3839 -32.6562 -36.3268 -13.4423 -18.6034 4.81577
-88.1489 -10.9621 -14.2262 -4.87211 -15.9886 4.87385
-80.473 -29.3142 -28.4263 -14.2067 -17.2499 4.84222
-69.4184 -23.6438 -26.407 -16.0704 -17.6764 4.80655
-74.989 -26.9003 -26.4484 -11.031 -15.2669 4.8555
-78.2258 -27.1977 -30.862 -9.76861 -18.9433 4.76929
-79.1627 -22.6994 -25.529 -12.1528 -18.1571 4.91222
-61.6995 -19.4517 -32.7993 -11.4681 -18.1087 4.89615
-70.1704 -21.4365 -26.2588 -15.554 -19.3213 4.76093
-80.167 -25.9209 -34.9418 -10.4984 -20.735 4.7287
-67.0719 -25.0347 -29.1436 -15.6117 -15.4948 4.76213
-78.9756 -30.5097 -23.6598 -11.5278 -16.9951 4.8194
-70.1986 -36.6537 -34.6986 -16.1278 -16.006 4.93698
-67.5874 -30.6463 -34.9774 -16.5125 -23.115 4.81239
-73.118 28.56 -16.2606 -3.56893 -16.1133 4.69854
-79.5835 -29.6141 -29.0109 -17.625 -17.2188 4.79334
-87.3442 -29.2114 -27.3376 -16.4967 -17.8752 4.81208
-106.869 5.7402 -31.2743 7.00357 -18.1614 4.80838
-89.117 -9.62267 -24.0146 -7.86371 -16.3323 4.83015
-73.9768 -30.7771 -32.4532 -12.4922 -20.2362 4.80135
-73.6942 -27.2054 -24.6624 -12.5168 -16.6035 4.81125
-79.2707 -39.5688 -35.6383 -20.9284 -22.2338 4.86865
-90.4477 -2.63016 -27.0969 2.06853 -17.1288 4.92816
-79.4397 -14.5326 -25.1869 1.75151 -16.0853 4.69816
-79.4935 -28.597 -24.1695 -14.4519 -18.9621 4.8522
-77.7829 -26.4418 -25.2793 -9.97534 -15.2181 4.84322
-81.4188 -39.7582 -27.4425 -18.3576 -19.0174 4.79622
-88.8135 -13.7897 -19.6356 -9.77094 -14.0994 4.8365
-87.9512 -24.3013 -28.2873 -14.6249 -18.7076 4.84429
-72.0871 -28.7669 -28.554 -12.3404 -17.9249 4.84193
-87.9091 -28.5227 -30.0902 -11.5384 -19.5291 4.79846
-96.559 -17.5326 -24.3609 -3.88437 -16.9378 4.80023
-81.1777 -6.00434 -23.9702 -4.844 -16.8512 4.90526
-95.5496 -12.2369 -26.781 -4.03669 -17.6731 4.9044
-91.4382 -1.33339 -22.1398 0.725987 -19.2699 4.87999
-91.5466 -18.7298 -14.708 -7.52693 -15.5109 4.84171
-74.7098 -14.3926 -29.471 -3.37297 -16.5748 4.90714
-79.3992 -28.5247 -30.5901 -11.9236 -19.2554 4.8429
-85.2823 -18.8215 -29.9674 -4.68211 -16.25 4.91114
-82.5276 -15.7201 -26.4423 -7.64526 -16.9197 4.9038
-76.5314 -16.573 -25.8756 -12.9531 -17.7189 4.91147
-78.0078 -26.0646 -38.4607 -9.73212 -17.6127 4.8559
-70.8448 -7.59872 -31.3704 -5.41972 -14.1889 4.87742
-84.8349 -4.68026 -23.3559 -4.35959 -19.6085 4.87726
-80.0322 -30.0199 -29.0734 -9.62695 -17.7315 4.81697
-79.7251 -23.3928 -24.2292 -7.31699 -17.833 4.85561
-74.8505 -24.1045 -28.8558 -11.2787 -15.9346 4.87682
-83.2409 -21.6913 -24.6882 -15.4913 -19.9614 4.75361
-76.8928 -24.2273 -17.8488 -14.0412 -12.3588 4.84644
-79.061 -34.1125 -26.7393 -12.4841 -19.0986 4.77665
-71.9146 -11.1529 -29.0573 0.323637 -18.8336 4.87065
-68.4427 -34.7543 -35.1688 -18.9887 -19.894 4.79455
-80.8237 -19.5561 -22.8144 -8.99967 -16.2397 4.8219
-91.0572 -5.90823 -29.1007 2.0903 -20.1216 4.84956
-80.4799 -30.1826 -25.1594 -14.4883 -19.1105 4.84894
-74.4796 -24.859 -26.715 -14.0175 -17.1142 4.85084
-85.4546 -17.5669 -21.5151 -9.32604 -16.4 4.85468
-82.5753 -14.604 -24.956 -11.9726 -17.9074 4.8531
-76.9786 -35.2521 -32.2973 -16.7168 -19.0244 4.80434
-77.9215 -32.6578 -31.1231 -14.094 -18.5884 4.71186
-71.7641 -21.4142 -33.8426 -18.0315 -22.9233 4.76865
-68.2709 -32.5993 -30.9542 -18.5995 -19.2052 4.86392
-90.3531 -10.2964 -22.2648 -5.70224 -17.4372 4.93128
-80.8737 -37.0673 -33.8329 -12.3016 -19.29 4.82766
-90.5356 -21.0031 -23.3764 -8.61368 -18.1648 4.80452
-83.296 -25.9109 -26.8946 -9.22942 -18.487 4.81971
-81.582 -20.5729 -27.7287 -8.50001 -15.0719 4.96588
-89.4235 -15.9291 -24.2151 -2.86822 -19.7609 4.8201
-82.8728 -38.5955 -28.7084 -16.801 -17.6719 4.68999
-69.1126 -33.3104 -38.343 -15.848 -20.4543 4.79623
-87.711 -7.79628 -23.6281 -0.0216177 -16.8037 4.79467
-56.8234 -33.7219 -29.7292 -16.8475 -15.5663 4.82429
-113.286 17.9921 -28.0037 13.8855 -16.9194 4.86146
-79.4193 -17.099 -17.3145 -4.01173 -14.5356 4.80937
-80.1131 -8.1603 -21.2649 -5.98319 -18.7395 4.81386
-66.0935 -19.8337 -25.1366 -10.7897 -14.905 4.89694
-75.6399 -13.3049 -24.5486 -8.11411 -17.8509 4.87282
-75.8805 -18.8253 -23.7179 -13.2543 -16.9594 4.86052
-84.6447 -21.7422 -26.3728 -6.99225 -17.3094 4.86878
-95.4156 -9.35696 -18.5518 -1.62261 -16.9848 4.84134
-99.2952 -2.67201 -24.0044 8.45431 -18.5858 4.78769
-82.0736 -13.7538 -24.3347 -6.76054 -16.7726 4.88911
-79.202 -8.22814 -27.3758 -7.12393 -17.831 4.85881
-81.872 -24.8699 -28.5649 -9.41444 -19.6376 4.82024
-73.7059 -23.8195 -33.2283 -11.0887 -18.5339 4.68083
-82.5949 -20.5262 -23.8274 -4.07237 -15.4728 4.81121
-84.4526 -17.2114 -24.33 -7.41034 -14.8743 4.78382
-75.1386 -15.8419 -24.7615 -8.03018 -17.1288 4.90101
-93.3066 -14.7261 -17.7301 -2.77596 -16.2793 4.73394
-63.5723 -31.4752 -38.429 -19.6285 -18.3693 4.77405
-77.5574 -24.3148 -30.4022 -10.2349 -17.0851 4.79762
-95.1082 -13.6176 -22.1658 -1.71071 -15.97 4.83886
-69.3001 -31.9545 -37.4441 -15.2738 -20.6975 4.86918
-65.3915 -29.0656 -29.7117 -15.329 -17.8871 4.80914
-63.9188 -34.6796 -34.4532 -14.9168 -18.588 4.80267
-76.7989 -17.2238 -22.9831 -5.82146 -18.5688 4.84322
-86.738 -18.8009 -25.9837 -5.99276 -16.5409 4.83367
-81.2617 -28.3794 -25.7863 -7.52726 -17.641 4.81045
-83.7066 -28.8859 -30.7944 -13.6013 -16.7988 4.83897
-84.8929 -12.4906 -24.5713 -4.70302 -16.9863 4.88232
-84.8698 -13.5507 -24.7392 -3.5847 -16.8031 4.79937
-88.676 -36.3471 -25.2485 -8.98971 -16.6707 4.93252
-74.6815 -6.96113 -25.2009 -0.479849 -15.6955 4.88734
-81.2296 -4.54015 -28.8639 -3.71113 -16.2725 4.81728
-82.9707 -12.6407 -27.6876 -1.6261 -18.3754 4.859
-87.2387 -18.3282 -20.6772 -8.63547 -18.105 4.80849
-94.1661 -19.1564 -22.767 -2.60154 -21.6092 4.80894
-77.3806 -30.6961 -28.0228 -13.9315 -18.2561 4.92154
-79.6699 -18.5135 -31.4987 -6.31985 -16.2687 4.88307
-83.3944 -26.2237 -18.4732 -9.00208 -15.4136 4.88405
-69.1917 -38.9273 -35.8224 -18.3898 -20.0048 4.80415
-79.7489 -30.4703 -27.0079 -10.1386 -16.8783 4.78649
-58.9221 -37.8803 -44.4359 -23.9141 -20.3721 4.83615
-65.0822 -19.1757 -30.0158 -7.33922 -16.165 4.79338
-80.3543 -29.5035 -30.2708 -11.6918 -18.695 4.79891
-80.8831 -20.6579 -31.8379 -0.412515 -17.5928 4.77087
-99.118 -0.732952 -20.6323 -1.01554 -20.8497 4.8534
-77.6232 -23.6505 -24.311 -5.12413 -13.3716 4.95456
-83.0313 -8.85177 -28.0431 -4.0188 -17.2912 4.86455
-70.6709 -36.6384 -37.1638 -20.4551 -21.9206 4.87741
-97.9112 -1.98957 -21.6618 5.95052 -17.4144 4.74346
-81.6823 -25.0413 -27.2929 -14.2516 -17.6632 4.84262
-82.1719 1.13738 -24.3319 -5.46961 -17.9305 4.84639
-75.7479 -21.6586 -30.7876 -10.931 -17.155 4.81708
-66.9016 -26.8149 -36.7821 -13.9168 -20.2593 4.82908
-69.0784 -32.9879 -27.8361 -16.2136 -17.8937 4.84036
-84.0799 -15.1409 -18.1894 -1.82916 -14.252 4.8211
-79.3645 -35.9204 -34.6028 -17.5042 -18.7812 4.85025
-69.2344 -19.7672 -34.7795 -11.3356 -17.9779 4.86495
-84.7173 -16.4071 -23.1802 -5.33696 -15.8212 4.88972
-65.2877 -15.1159 -31.61 -8.51909 -17.4461 4.8637
-75.2053 -18.6923 -28.6754 -9.14845 -19.0238 4.79646
-58.5494 -41.0188 -35.9365 -20.8101 -18.6909 4.81222
-63.7769 -27.7925 -43.2337 -13.504 -19.7887 4.79084
-68.0972 -25.5952 -30.3571 -12.3231 -15.6566 4.88385
-89.686 -10.0485 -17.3989 -7.58342 -15.9775 4.83385
-76.8174 -11.8073 -27.9786 -7.11386 -15.1529 4.93875
-80.076 -18.9612 -20.8174 -10.9737 -15.33 4.83383
-70.6987 -19.6514 -27.9219 -9.88424 -14.4615 4.87287
-78.3713 -20.6421 -24.8572 -8.84295 -18.9163 4.84547
-82.8821 -15.2707 -20.5851 -8.27071 -16.1398 4.78653
-75.3329 -4.91274 -24.8024 -2.88838 -15.9428 4.80009
-85.2098 -12.9237 -21.7614 -3.07397 -15.8139 4.81086
-70.3429 -15.1314 -23.4617 -9.60475 -14.8891 4.85983
-81.4412 -33.9915 -25.8432 -16.3235 -15.9975 4.81575
-83.6396 -22.7632 -26.584 -5.4488 -19.1597 4.89061
-78.0258 -22.349 -35.5006 -16.0381 -21.2559 4.82581
-71.2459 -30.1552 -22.4184 -14.0394 -13.6751 4.89494
-82.2704 -25.4889 -20.897 -10.9449 -14.9505 4.79389
-86.3398 -23.7275 -26.23 -7.1144 -14.8799 4.80648
-92.5501 -3.01815 -19.7235 -2.2535 -17.7119 4.77043
-83.906 -25.5526 -26.4845 -9.41444 -13.8353 4.83209
-76.6655 -6.78527 -20.1694 -3.0674 -14.6705 4.78478
-81.3253 -3.80223 -24.1728 -4.64266 -17.6807 4.73794
-79.7906 -6.07011 -19.2296 -0.281662 -15.6325 4.88978
-83.9362 -12.9047 -26.0037 -8.3227 -17.3205 4.78484
-81.9624 -12.2021 -25.7181 -9.30309 -18.1588 4.83494
-66.833 -26.1572 -30.214 -12.0256 -18.4095 4.91232
-72.44 -35.5949 -33.0855 -16.5949 -18.75 4.79275
-69.153 -25.7677 -35.8018 -15.6063 -20.5663 4.82072
-66.8789 -33.0918 -38.3317 -13.934 -18.9777 4.90134
-84.7471 -4.97385 -23.5931 3.95261 -14.6308 4.84422
-70.2078 -29.0009 -29.768 -18.1138 -17.4926 4.79616
-67.4013 -20.0926 -29.8123 -9.93435 -19.9164 4.77971
-70.3508 -33.1626 -35.2937 -17.5682 -19.1247 4.7706
-84.0192 -23.3362 -32.0349 -12.9612 -19.372 4.86445
-66.5169 27.8844 -13.0994 -2.33053 -16.4333 4.6862
-104.554 54.2802 -27.8472 9.56045 -16.3663 4.4945
-95.6748 75.5514 -29.0572 22.1 -19.6376 4.38792
-109.936 67.6962 -38.5262 24.8833 -17.4481 4.4345
-93.7595 73.358 -28.7123 16.365 -17.6701 4.32956
-44.655 47.5192 11.9258 6.63607 -8.5738 4.59399
-65.8355 52.7731 -4.53348 4.02734 -16.4212 4.54045
-84.75 44.4047 -19.451 1.87437 -16.4033 4.63487
-49.6531 46.3263 8.99189 -3.79507 -12.7918 4.48269
-44.5957 49.9123 15.6854 4.56427 -8.59073 4.59586
-97.1304 63.0085 -29.1602 19.6274 -14.192 4.61844
-57.0664 66.0938 5.35201 16.9806 -11.2092 4.37617
-61.4634 56.9457 0.392726 7.79645 -8.70281 4.5113
-113.914 49.9439 -41.2693 7.0677 -16.8647 4.59391
-137.94 58.7225 -55.1557 23.317 -21.0567 4.37533
-88.2292 14.9526 -34.5397 -0.847725 -20.8449 4.83328
-87.436 -9.98972 -28.9651 -7.18616 -17.7794 4.76507
-72.3073 -15.9398 -29.042 -6.65531 -17.7856 4.8309
-72.2476 -33.365 -32.7257 -16.3007 -14.5476 4.81706
-82.3003 -15.0044 -37.6201 -2.2181 -21.69 4.86119
-67.5993 -21.1251 -39.1119 -10.922 -17.2848 4.79987
-78.3575 -20.3654 -27.2974 -4.97578 -15.3996 4.83832
-68.7366 -28.8983 -31.4932 -14.376 -14.7884 4.87082
-81.9049 -7.93191 -29.3511 -9.1478 -15.4733 4.95108
-94.8157 -18.6754 -27.4269 -7.98676 -23.4041 4.79952
-80.4996 -22.5881 -35.5832 -8.65753 -18.715 4.89419
-77.6187 -26.6911 -33.4826 -12.2096 -19.2197 4.84467
-83.1408 -25.7803 -35.1471 -15.7856 -18.9608 4.89174
-79.0023 -12.1592 -28.9094 -7.78937 -18.8227 4.8
-70.1138 -22.5379 -29.2271 -13.4963 -17.6302 4.83876
-83.0451 -36.5364 -31.7927 -12.1425 -17.2148 4.75753
-75.5664 -14.3354 -22.8426 -13.6519 -16.1836 4.82076
-82.3276 -24.513 -31.7042 -12.5474 -18.7879 4.82572
-65.0529 -30.3953 -38.4061 -18.1854 -21.8068 4.73413
-81.5183 -10.9964 -23.8457 0.184746 -12.7959 4.87101
-63.8228 -29.1397 -40.2508 -18.6469 -18.4071 4.84192
-87.0401 -18.648 -27.306 -5.761 -16.476 4.82964
-78.6675 16.6109 -16.9746 1.86826 -13.9948 4.86125
-82.2825 -35.8652 -23.5687 -15.4795 -17.8249 4.79801
-79.0135 -30.7908 -28.2317 -15.6767 -17.049 4.83403
-87.6531 -0.551642 -19.7745 -4.4132 -18.0673 4.87812
-77.193 -13.7371 -26.4929 -12.7231 -20.655 4.82309
-92.4443 -0.78455 -19.4781 8.35123 -15.1216 4.87877
-78.8405 -19.2766 -27.7699 -6.12863 -16.295 4.88004
-77.7807 -24.7671 -33.8149 -10.6844 -20.1138 4.82644
-77.0217 -23.5485 -27.7042 -5.83057 -18.2547 4.77418
-82.551 -15.1002 -23.6546 1.05872 -17.6303 4.70147
-82.6101 -2.45469 -19.7827 0.275458 -17.4771 4.79253
-81.9976 -12.3199 -25.1442 -8.40067 -17.7433 4.79948
-89.1077 3.72058 -27.0992 1.4461 -15.9143 4.87124
-68.8886 -25.5604 -42.1435 -7.60348 -18.9463 4.77772
-84.5962 -5.89144 -26.184 1.17582 -16.6035 4.82993
-91.4382 -13.9106 -22.2647 -0.956251 -15.3283 4.83455
-72.9272 -23.1902 -28.7268 -16.5826 -18.03 4.8244
-66.5797 -30.357 -35.9429 -17.9572 -18.1437 4.90431
-68.1269 -26.5697 -29.8176 -15.5627 -18.6585 4.92134
-84.7335 -20.8929 -23.8911 -14.1313 -18.7516 4.78817
-83.4966 -18.8066 -29.1719 -5.16088 -16.2699 4.80445
-73.9865 -16.0784 -34.4848 -6.62365 -19.16 4.81617
-75.3712 -32.9411 -28.6205 -17.5119 -19.2005 4.80574
-86.6022 -31.1193 -31.2344 -10.2108 -17.3789 4.81694
-84.4425 -31.1512 -21.2221 -8.76617 -17.3295 4.78333
-86.6635 -12.0721 -28.9362 3.32025 -13.6289 4.85924
-69.9534 -16.0036 -22.851 -12.3157 -13.871 4.83949
-72.0163 -11.8519 -37.1452 -15.0296 -20.9054 4.71482
-99.8689 -11.8523 -33.6918 5.63918 -18.9733 4.82599
-72.6725 -5.38794 -34.4768 -0.235841 -17.8154 4.83342
-73.663 -32.8291 -32.2913 -14.3727 -21.6456 4.7664
-88.2565 2.40656 -25.4091 4.64229 -18.2023 4.76149
-76.9164 -25.762 -26.5254 -7.40652 -15.3673 4.83498
-83.4995 -15.7021 -30.3072 -10.1716 -20.0575 4.82874
-71.9303 -21.1654 -33.7105 -9.78215 -16.0996 4.8513
-72.7818 -18.8918 -34.9509 -11.3739 -18.2208 4.91697
-82.2024 -3.41752 -23.3153 4.9716 -16.9823 4.82461
-83.4083 -25.2565 -30.8643 -10.7583 -16.3473 4.8521
-113.058 18.7791 -27.9515 20.4699 -17.1556 4.78352
-61.7043 -34.9545 -40.205 -18.5431 -19.5893 4.80909
-62.7166 -10.8359 -32.3037 -8.87086 -18.1324 4.88422
-77.5956 -21.517 -33.3898 -8.42467 -17.4816 4.83257
-65.8962 -34.91 -41.611 -21.2536 -19.3927 4.80731
-88.9935 -14.9075 -29.4475 -6.11545 -16.4931 4.96031
-82.9269 -17.4677 -29.9418 -3.71041 -19.0698 4.79298
-80.6143 -5.38398 -24.325 1.08809 -13.7296 4.75641
-64.1796 -37.4718 -45.1228 -21.6015 -21.5444 4.82801
-80.4292 -7.55097 -30.0783 -2.10256 -18.3073 4.77773
-62.0651 -25.4139 -32.0338 -8.23874 -16.6525 4.77593
-77.0892 -13.2807 -21.6027 -14.4993 -17.439 4.72321
-72.3503 -14.5379 -26.009 -6.88254 -15.7044 4.82222
-53.7922 -35.9756 -41.7874 -19.0148 -16.6173 4.76381
-77.7481 -24.0469 -33.9111 -7.70882 -18.0651 4.79802
-78.8685 -20.1933 -36.6195 -13.3023 -19.2093 4.82065
-77.4151 -18.1981 -21.9589 -7.50536 -18.7572 4.78396
-71.8505 -18.1844 -31.6919 -10.6765 -14.4315 4.79049
-89.8857 6.69522 -33.1778 11.4915 -17.6939 4.83296
-74.7521 -25.8933 -29.3743 -11.0497 -18.5714 4.89322
-60.5421 -25.6867 -42.2281 -16.6279 -21.8948 4.80502
-84.5065 -41.291 -37.4488 -19.1097 -21.583 4.7738
-81.8072 7.44492 -34.9177 7.84038 -17.4519 4.78743
-72.2987 -31.076 -31.7968 -14.514 -18.6729 4.78729
-83.5013 -17.3953 -32.0635 -9.87274 -18.4064 4.75274
-81.3312 -22.0786 -37.6385 -12.6454 -19.5201 4.82482
-82.3047 -16.2562 -32.3467 -2.24737 -18.0115 4.80357
-70.083 -39.1715 -47.5952 -18.0039 -21.9193 4.82661
-77.2015 -19.9301 -35.3662 -11.5136 -20.4488 4.87045
-68.8931 -28.0823 -37.8196 -12.6465 -20.0539 4.79262
-84.361 -27.2248 -25.3473 -11.6846 -17.8444 4.82973
-76.1552 -19.6365 -30.8668 -9.60299 -19.6154 4.91888
-68.0396 -27.0569 -27.0338 -19.0861 -20.7029 4.85544
-73.3568 -24.0871 -33.2499 -12.0616 -21.0587 4.86983
-82.5695 -10.5812 -26.4562 -4.91174 -13.9809 4.82165
-86.7675 5.0782 -28.9797 4.28157 -19.2577 4.74921
-77.8925 -18.514 -23.399 -8.15722 -13.5415 4.8269
-82.1252 -5.26693 -27.3248 -5.29151 -18.1408 4.75527
-66.3457 -26.52 -32.7716 -15.2176 -19.1825 4.9194
-63.482 -24.6395 -34.8425 -18.4693 -19.7978 4.84031
-71.3886 -24.813 -37.8604 -6.84031 -17.9419 4.80056
-80.4172 -5.53625 -26.0653 -6.01004 -17.1575 4.85384
-78.5807 2.20487 -29.0801 2.88881 -15.048 4.76593
-80.4912 -26.6187 -33.0378 -13.7448 -17.5992 4.83068
-81.5681 -17.3103 -29.8764 -8.04435 -19.642 4.80618
-82.8682 -8.70839 -35.4706 -1.07624 -18.6553 4.91828
-84.8086 -19.5599 -28.1013 -11.1607 -16.9659 4.84359
-77.6755 -17.9385 -27.777 -10.9638 -16.4147 4.77918
-76.4526 -19.0969 -32.0285 -6.42647 -16.6746 4.88132
-67.3398 -7.77878 -23.5003 -1.86385 -13.7934 4.79258
-77.8874 -20.589 -24.3476 -5.24351 -14.6888 4.83271
