# RotX(deg) RotY(deg) RotZ(deg) RotYY(deg) RotZZ(deg) Distance(A)
-97.3464 17.1751 -29.9348 8.50976 -17.1999 4.77017
-91.6515 -6.15963 -28.2653 -0.203152 -16.4691 4.70253
-76.1343 -21.0854 -31.2632 -8.06257 -16.0769 4.8661
-89.6493 -16.4789 -23.1656 -4.45564 -17.7273 4.89152
-105.483 11.0527 -36.116 15.1419 -22.5898 4.83744
-85.9158 -20.9105 -25.2606 -8.42194 -15.4003 4.87312
-94.5556 0.640821 -17.972 -5.99308 -16.5332 4.83147
-75.8178 -22.9452 -25.1483 -12.0474 -18.2201 4.8451
-86.4362 -11.856 -18.8093 -4.20648 -15.0324 4.76734
-57.7888 -24.1885 -40.9125 -10.5879 -19.0335 4.79569
-71.0339 0.0827922 -29.492 -2.56387 -18.1002 4.79192
-86.0471 -26.7574 -20.3068 -9.10051 -17.6943 4.77469
-78.7809 -18.0293 -31.0688 -14.0097 -17.9859 4.83133
-79.4891 -25.2223 -28.6961 -13.3716 -18.7917 4.79958
-81.2572 -12.2695 -14.693 -4.89944 -14.9928 4.72012
-76.2732 -11.5203 -25.2703 -2.63199 -14.996 4.77494
-82.8383 -4.71204 -25.3652 -3.06614 -18.5249 4.82611
-82.5409 -12.9418 -32.9766 -2.81773 -21.2178 4.82599
-83.0143 -13.7494 -26.0895 -7.28435 -20.2076 4.78601
-94.8836 -3.86238 -30.4115 -4.84337 -18.8594 4.81736
-72.5139 -27.9017 -36.8566 -12.786 -18.8747 4.77392
-68.5207 -38.5015 -35.1756 -18.3792 -14.969 4.74681
-86.379 -27.0273 -31.7229 -21.0462 -21.4227 4.75682
-95.8821 7.24203 -21.7907 6.95492 -18.2833 4.79477
-71.2449 -21.7788 -31.4493 -14.4867 -18.1306 4.80629
-78.6162 -21.2995 -23.5722 -7.22968 -18.1795 4.80003
-75.3178 -37.0454 -29.542 -21.2186 -20.7228 4.70458
-88.1732 -29.9191 -23.3285 -17.94 -18.8196 4.8616
-82.3719 -6.68772 -21.7123 -3.89508 -16.4904 4.79685
-76.2093 -38.5639 -28.7505 -20.3309 -19.8986 4.82625
-78.9511 -25.4974 -30.9765 -13.478 -18.8892 4.8101
-84.3106 7.2079 -33.2745 5.55643 -17.6509 4.7818
-86.3924 -4.98507 -21.3247 -7.44974 -19.5003 4.7356
-74.298 -10.6008 -28.7813 -5.83971 -18.4003 4.83816
-50.8097 48.0203 2.43843 7.95178 -12.3236 4.56269
-88.3445 -21.1629 -32.4381 -9.88974 -20.0164 4.72545
-81.0221 -16.5458 -24.2644 -5.98393 -13.1658 4.926
-70.6217 -39.7993 -35.0312 -20.1255 -14.8497 4.76201
-72.7784 -18.1095 -35.0783 -10.6978 -19.5474 4.89719
-79.5411 -24.9998 -21.3807 -14.1587 -14.9545 4.86685
-60.1693 -20.8535 -37.9158 -14.8683 -16.1139 4.80502
-75.526 -18.398 -26.3169 -10.2762 -17.4368 4.84516
-81.943 -9.70264 -25.5926 -4.24485 -18.9264 4.80388
-92.8877 -21.7399 -30.8165 -15.6165 -22.35 4.8139
-70.4409 -24.878 -26.4972 -13.33 -18.7569 4.94422
-76.0345 -20.3873 -25.7904 -13.0549 -15.93 4.93073
-84.9916 -8.8904 -32.5977 0.487225 -20.6137 4.80251
-79.3509 6.81743 -25.9091 -4.91098 -17.5497 4.90679
-83.0471 -25.1181 -30.9202 -11.4597 -19.9685 4.91489
-71.9329 -21.2779 -20.4384 -17.1735 -15.3207 4.83329
-85.3802 3.00203 -31.4761 1.82284 -16.6202 4.86271
-76.5893 -12.1326 -23.2965 -2.88791 -17.4709 4.79562
-62.5294 -30.6284 -34.6563 -16.3947 -18.2108 4.79978
-91.6021 2.88828 -14.7422 0.954135 -16.62 4.91938
-78.838 -18.2991 -27.6226 -13.3192 -15.9771 4.82843
-52.2442 -35.2524 -41.9054 -15.4812 -18.3482 4.80306
-81.9368 -24.3994 -26.9763 -9.25321 -17.6967 4.85478
-78.6888 -19.6026 -28.4467 -9.62397 -17.0684 4.84889
-87.8268 -24.1665 -16.8311 -12.9999 -17.0178 4.84597
-84.0459 -12.4383 -27.7502 -5.59269 -14.9899 4.86521
-70.2867 -28.3606 -25.9435 -10.5555 -19.8455 4.82831
-75.7748 -14.6983 -32.7119 -8.40717 -17.0314 4.80584
-92.626 -13.5294 -23.532 -4.16406 -17.683 4.82554
-85.278 -0.562349 -22.5474 2.89951 -13.7653 4.88704
-84.7156 -21.608 -24.8483 -8.63448 -16.3025 4.86171
-78.6398 -25.0367 -31.9223 -10.0206 -17.6205 4.92509
-95.8672 -9.69653 -19.3464 3.86443 -19.0791 4.84244
-78.9898 -18.4673 -33.1391 -7.60888 -18.772 4.85683
-70.6487 -36.8976 -36.954 -19.4032 -19.5705 4.80842
-60.0617 -25.4537 -39.992 -12.1033 -18.6506 4.82179
-92.3454 -12.9508 -24.9735 -4.76509 -16.1107 4.7805
-110.53 27.982 -32.7066 19.1192 -20.5347 4.59341
-69.4268 -28.1043 -27.1096 -9.61872 -16.2455 4.88054
-89.5263 -17.7029 -20.3054 -12.1632 -20.1829 4.90783
-79.4105 -25.1934 -32.6857 -11.2883 -18.8684 4.84624
-90.405 -21.5954 -30.0898 -12.6531 -21.5364 4.81996
-67.1923 -15.6145 -26.9574 -13.7728 -17.6879 4.78964
-81.2377 -21.2732 -19.41 -8.83377 -17.4478 4.94366
-77.6893 -33.0528 -33.7797 -17.8894 -21.4383 4.7382
-82.5792 -19.9528 -21.2302 -14.5923 -16.0703 4.85253
-94.8704 6.79179 -20.6017 5.04042 -15.5786 4.65477
-70.7814 -35.8816 -31.7881 -18.597 -19.6041 4.80199
-81.9449 -18.0015 -28.388 -4.91187 -19.4215 4.8575
-69.6853 -27.8536 -28.3222 -17.5896 -18.339 4.8486
-76.5647 -8.72935 -25.4326 -8.19926 -16.8937 4.8844
-76.3156 -6.04586 -28.1021 -1.00184 -15.7528 4.82779
-81.2519 -5.67668 -34.8998 -2.21827 -18.1972 4.87223
-72.5238 -19.2114 -41.4875 -8.33443 -18.3251 4.98179
-73.1231 -27.9488 -33.9749 -16.0095 -18.9871 4.77987
-83.733 -33.4329 -16.1043 -17.1379 -17.074 4.82976
-77.9488 -18.2236 -29.0846 -8.49935 -13.7299 4.9249
-81.7727 -22.9548 -26.1058 -10.4212 -17.1313 4.82391
-85.4813 -32.9481 -22.7623 -17.7254 -16.9307 4.87185
-81.8698 -20.1708 -32.7047 -13.0602 -20.3756 4.8692
-87.1994 -3.55371 -17.2044 -6.50834 -16.3008 4.7893
-77.1778 -19.4256 -23.7967 -12.2018 -16.481 4.83197
-85.0356 -24.2251 -18.6612 -9.7713 -16.2777 4.82119
-86.2198 -16.3543 -23.0577 -9.24919 -16.9756 4.918
-92.4633 -12.4432 -21.624 -5.7797 -14.8229 4.94108
-79.2835 -18.8607 -30.6531 -10.4601 -15.7226 4.75314
-93.6806 -5.95197 -25.2004 -1.43995 -17.6525 4.8253
-75.8888 -29.4378 -37.4118 -15.322 -20.3442 4.81363
-90.9934 -27.0413 -19.7029 -8.6449 -18.7106 4.93526
-76.3763 -22.0005 -39.4815 -10.9796 -19.3671 4.81955
-80.5382 -20.2179 -34.6563 -6.47607 -15.6236 4.8078
-67.7921 -13.1919 -23.9904 -6.2019 -12.913 4.81873
-84.2041 -5.45177 -20.4457 1.54552 -16.2913 4.76496
-78.4442 -19.0693 -33.2108 -7.26984 -18.6641 4.8346
-87.7615 2.31012 -26.1367 7.07656 -17.7339 4.76705
-76.796 -30.472 -26.4311 -18.0919 -15.2956 4.81258
-80.3114 -26.7402 -30.2228 -10.2694 -16.7532 4.9395
-63.6719 -35.0094 -34.4241 -22.3168 -24.0963 4.72178
-78.4418 -14.6621 -28.0218 -10.8159 -19.6405 4.70958
-96.2856 -2.91774 -20.9129 1.73158 -16.1257 4.8207
-62.8615 -15.8438 -33.1225 -17.3438 -19.8439 4.75006
-83.3557 -27.5213 -23.288 -15.761 -13.9915 4.88016
-89.5724 -16.0769 -24.6808 -4.41755 -15.1714 4.88841
-93.6067 -5.60069 -21.0907 -0.153323 -17.468 4.77483
-108.908 12.2341 -36.9563 12.7405 -23.5436 4.75708
-81.8975 -12.8291 -21.9381 -2.4604 -15.5998 4.76276
-81.6224 -27.5998 -24.6559 -16.615 -15.8363 4.89671
-70.1709 -25.1925 -33.9932 -12.1771 -17.443 4.80949
-78.9731 -28.1686 -26.7462 -7.53497 -17.9356 4.83055
-75.2153 -29.5066 -22.1963 -14.3895 -15.0376 4.84831
-89.9903 -27.0421 -32.1175 -11.485 -20.0122 4.79952
-74.1759 -40.1358 -30.8263 -23.7216 -21.4092 4.80717
-76.8259 -18.4192 -32.1011 -5.19389 -19.5075 4.76294
-93.5004 8.72927 -26.9037 6.92514 -17.566 4.82953
-81.0527 -11.3651 -29.7303 -5.71768 -18.1713 4.81272
-78.7247 -29.7484 -31.1678 -17.3543 -19.364 4.86868
-74.4887 -17.7728 -28.1671 -10.6609 -15.0354 4.75121
-71.8706 -20.2548 -25.4452 -13.1483 -15.6694 4.80348
-69.1967 -32.3309 -27.5792 -13.8022 -12.9457 4.89463
-76.1901 -9.9131 -23.3438 -4.15911 -14.6188 4.75381
-84.3698 -6.01789 -19.3391 -3.47191 -17.5379 4.84889
-71.9762 -29.7736 -35.596 -17.8863 -19.8935 4.7977
-86.4226 -21.6986 -17.3499 -14.9636 -14.7768 4.80128
-83.4128 -25.7096 -31.0795 -7.17984 -18.0463 4.80645
-78.9595 -15.1713 -38.9575 -5.6044 -21.1016 4.80969
-76.1502 -21.3839 -35.0696 -10.4924 -20.7454 4.84045
-81.4075 -18.8532 -32.0669 -8.98312 -18.373 4.87532
-83.451 -21.1306 -26.1266 -8.58221 -19.7334 4.72877
-81.8593 -16.4453 -28.746 -6.87323 -18.0994 4.9411
-88.127 -15.7946 -30.7548 -7.58942 -16.4901 4.85246
-94.9794 13.3058 -23.4779 8.06672 -17.675 4.73986
-82.1953 -9.48365 -27.7832 -1.75712 -16.6158 4.86901
-72.9664 -1.87045 -25.72 1.46823 -16.7853 4.85835
-69.3255 -25.5683 -34.1297 -10.5417 -19.1118 4.75643
-70.3024 -23.411 -34.1807 -10.1879 -18.9321 4.80618
-83.8848 -4.59649 -27.0961 -1.69974 -17.4837 4.89337
-67.0139 -16.6725 -28.499 -15.0909 -16.6691 4.7961
-91.8571 -7.32548 -27.913 -6.038 -16.9273 4.88427
-76.717 -8.57367 -26.8166 -2.04262 -14.4092 4.81526
-76.4279 -24.5755 -28.8089 -11.8907 -17.3435 4.9075
-86.9829 2.94174 -32.4972 -4.48806 -22.2304 4.83531
-83.7372 -13.2282 -18.3803 -4.82677 -16.4446 4.91626
-68.839 -7.65035 -27.0209 -2.56484 -12.6706 4.92764
-76.3951 -18.5655 -21.2332 -11.158 -16.8436 4.90472
-90.9497 -18.2331 -31.1518 -6.38353 -19.1832 4.86479
-76.4734 -24.2609 -28.8612 -13.1619 -20.1442 4.89221
-101.128 -9.00952 -13.6364 -5.22762 -15.1811 4.76127
-80.426 -27.2959 -31.9169 -11.9642 -20.5801 4.86014
-82.6691 -17.622 -24.6039 -10.5545 -14.5498 4.80944
-97.0378 1.38429 -31.5056 0.661368 -18.5571 4.79843
-90.9771 -29.7985 -19.8773 -19.2981 -17.7035 4.82677
-65.9829 -34.4437 -38.8855 -13.8914 -21.4415 4.80666
-67.63 -15.3548 -26.2531 -7.77328 -14.0725 4.76795
-74.3939 -13.0472 -24.108 -6.95804 -19.764 4.8062
-79.6383 -22.7799 -31.6044 -10.3834 -15.5096 4.86182
-79.9419 -14.7132 -20.0608 -7.48923 -13.8372 4.83317
-66.9702 -33.3287 -36.9696 -18.4853 -19.9239 4.73721
-75.4329 -31.1266 -32.0407 -16.5767 -18.9411 4.87753
-81.1675 -7.0188 -29.8207 -2.49094 -17.1378 4.76721
-92.3601 -9.55305 -18.1734 -0.363728 -15.3038 4.72199
-65.8828 -26.7974 -32.6261 -15.6555 -19.6943 4.77979
-73.9276 -25.669 -26.9243 -11.7263 -15.4102 4.85355
-77.269 -26.6223 -37.0018 -11.9969 -18.8072 4.8154
-70.9715 -15.6898 -30.5915 -7.50842 -19.0376 4.80545
-90.082 -6.75548 -24.4019 -4.46069 -15.3973 4.88752
-66.7233 -27.9396 -29.8038 -17.9857 -20.4958 4.75611
-63.1669 -19.6686 -31.1537 -14.1288 -16.4139 4.73969
-74.573 -30.2112 -26.2621 -11.9098 -18.179 4.78825
-76.6727 -12.238 -29.4109 -4.74539 -16.5075 4.74282
-72.1677 -17.0758 -19.8427 -7.62938 -19.0464 4.81521
-83.7233 -19.0486 -26.1232 -7.73691 -18.2385 4.85418
-79.9753 -31.2031 -28.8029 -16.9894 -16.6918 4.79291
-95.3876 -11.7135 -22.1842 -1.76014 -14.9547 4.83235
-76.8461 -18.6244 -21.7231 -10.1789 -15.9563 4.77661
-75.1344 -30.7882 -29.2287 -12.998 -20.6593 4.84644
-85.8131 -19.4994 -39.3984 -14.1252 -22.4798 4.82252
-83.1844 -10.9308 -27.2031 -0.128927 -18.348 4.78668
-75.9043 -32.9247 -29.2855 -18.8722 -20.1208 4.79704
-106.496 6.10764 -24.5131 10.3237 -16.764 4.79065
-77.3287 -10.9709 -24.841 -6.88007 -17.3859 4.83541
-87.267 -5.4352 -29.2451 -2.01477 -17.104 4.86414
-73.414 -13.9332 -29.5112 -3.37687 -16.6854 4.92021
-68.249 -25.5677 -36.1638 -14.1327 -21.4625 4.83186
-61.7298 -29.8064 -39.2663 -14.9568 -17.6782 4.78124
-69.861 -32.0082 -39.5562 -11.7892 -17.0092 4.81498
-86.0604 0.545846 -29.4725 -7.62222 -18.5846 4.72079
-91.7514 -14.2888 -32.4188 -7.08256 -19.5661 4.80376
-77.8459 -18.8517 -34.0257 -11.8411 -16.3559 4.72391
-78.6491 -7.44563 -32.4393 -3.02976 -19.3424 4.81314
-96.353 -8.35081 -19.4188 -0.515663 -16.2976 4.7998
-95.0783 -13.9799 -29.051 -9.29336 -19.7582 4.77827
-85.5561 -31.6621 -36.5967 -16.4325 -21.8907 4.73764
-95.4476 -4.6745 -20.4581 3.19613 -16.6943 4.69312
-76.5854 -5.67384 -22.6577 -2.58996 -13.8141 4.80533
-72.9151 -24.448 -31.0988 -11.2241 -20.489 4.84705
-72.6061 -9.98915 -20.8685 -7.84574 -19.3984 4.8614
-73.2604 -14.898 -28.2549 -9.96011 -17.5313 4.756
-71.7627 -19.8145 -25.1009 -13.8791 -19.7765 4.84872
-68.5875 -21.372 -32.7965 -9.30654 -16.4018 4.80455
-80.7742 -35.6812 -33.2601 -20.9222 -20.4491 4.77723
-83.4914 -22.8758 -37.1178 -6.05108 -15.7494 4.88797
-83.0544 -11.9257 -27.7696 -4.81208 -18.0291 4.84476
-95.6528 -24.9688 -18.4896 -13.2667 -18.622 4.81931
-81.0704 -6.42002 -24.648 -1.37283 -18.7382 4.8294
-75.845 -16.3202 -25.0551 -11.3284 -17.3412 4.7993
-78.7827 -36.2128 -28.3544 -17.2259 -19.5977 4.85289
-76.3495 -3.53661 -23.584 -5.63927 -13.5289 4.89539
-73.0459 -32.0772 -24.9577 -14.9311 -18.9308 4.78796
-89.9917 -19.6815 -22.0869 -6.8813 -17.5954 4.77373
-82.7952 0.129367 -17.2186 -0.768884 -15.6304 4.85377
-81.0277 -14.4719 -29.9325 -4.88738 -19.9343 4.81954
-91.2927 -20.3491 -22.7975 -3.50352 -20.4069 4.80049
-75.6375 -17.8359 -24.436 -12.6251 -19.6573 4.807
-86.8761 -13.1887 -21.8348 -6.81155 -18.0893 4.8115
-68.5541 -34.9647 -35.5066 -17.3057 -21.0076 4.76077
-74.519 -14.1442 -32.688 -4.43063 -19.5181 4.80691
-85.1716 -2.97414 -31.1088 2.52918 -17.0266 4.85539
-93.5649 -15.0028 -18.2796 -9.88502 -16.4146 4.76857
-70.8593 -11.3978 -25.5139 -14.0821 -17.4916 4.79219
-72.1294 -28.9836 -30.7325 -13.7779 -19.1295 4.76543
-78.5467 -15.3038 -31.3915 -3.8432 -18.6517 4.83288
-69.0695 -21.646 -28.638 -12.2851 -18.621 4.77174
-78.8902 -18.2708 -32.9849 -5.5493 -20.7411 4.78397
-74.8975 -18.6067 -29.3974 -7.91806 -15.8066 4.73715
-75.2854 -24.171 -29.8791 -15.8127 -18.9575 4.84341
-71.9571 -11.0752 -31.2073 -11.5096 -17.5191 4.81143
-80.5294 0.361564 -25.4903 -8.52232 -18.1711 4.78799
-75.0752 -23.6582 -28.8491 -11.4907 -16.6789 4.8449
-84.6494 -14.2054 -25.4735 -7.3275 -18.1824 4.8741
-93.3141 -12.067 -24.9854 -2.05316 -18.3605 4.74535
-94.3144 -19.8422 -21.0766 -5.18597 -14.4391 4.83247
-64.7707 -27.3625 -27.5148 -15.2546 -17.1838 4.9198
-74.8493 -39.8134 -30.3858 -17.6302 -17.5348 4.79769
-75.176 2.22337 -16.9887 -9.95724 -15.8676 4.81062
-77.0615 -19.341 -30.0198 -9.3313 -17.2115 4.79981
-102.198 -16.8275 -26.2237 -8.77866 -17.2683 4.93684
-66.2667 -29.605 -32.5525 -15.9217 -17.7572 4.87147
-72.2574 -15.8971 -34.9854 -11.5069 -18.2663 4.89978
-70.1279 -30.9607 -34.3762 -19.044 -18.03 4.84358
-68.0516 -23.9546 -45.096 -11.997 -18.8429 4.91549
-66.4283 -22.4915 -28.4473 -13.3686 -16.84 4.89612
-57.4731 -25.6513 -31.731 -21.8682 -17.7586 4.84228
-80.6986 -17.0441 -33.3279 -7.30812 -20.3777 4.84673
-86.2385 -10.1139 -30.576 1.91804 -19.3145 4.83167
-88.2555 -16.159 -18.9962 -3.35823 -16.8786 4.79968
-71.8807 -13.3519 -27.3753 -10.2917 -14.7231 4.90611
-65.8493 -18.8766 -35.5626 -15.9993 -16.5585 4.83595
-78.3356 -13.4604 -27.6462 -9.51271 -17.2363 4.84473
-73.2168 -21.3035 -30.0146 -8.1286 -19.8713 4.75671
-88.6565 -2.08621 -24.5023 4.39049 -16.7243 4.76927
-91.6792 -13.2548 -21.6668 -0.105 -18.7687 4.82497
-70.9602 -25.4491 -28.4201 -14.6948 -20.3543 4.78747
-78.5363 -31.3843 -27.2823 -14.2094 -19.2308 4.81907
-86.5297 -7.09271 -21.684 -2.19519 -14.0287 4.74394
-87.7818 -28.286 -24.7336 -13.9994 -14.8202 4.74951
-89.1097 -16.3587 -28.4518 -3.0591 -19.5047 4.7776
-63.2415 -23.569 -37.6731 -10.6514 -18.2828 4.83104
-83.852 -5.47985 -26.1478 -1.57177 -18.2222 4.92861
-76.7606 -14.6188 -26.3485 -7.20051 -18.5824 4.7977
-64.193 -25.7279 -38.9846 -14.0588 -18.2665 4.7982
-75.7323 -12.9484 -34.5 -2.1601 -17.6162 4.81364
-60.4934 -18.1324 -40.3135 -14.1692 -20.8996 4.8109
-96.6512 -1.80291 -28.5505 3.4797 -18.05 4.78444
-83.5453 -26.2249 -25.0449 -11.3523 -16.284 4.91048
-81.9905 -5.09191 -28.1267 -3.44742 -14.892 4.86627
-90.218 -9.84598 -25.4596 4.23627 -18.5186 4.93269
-82.2716 2.89465 -21.0107 -0.647712 -16.3646 4.76534
-81.0558 -21.1852 -24.1777 -6.72732 -17.8001 4.87779
-71.7788 -11.6873 -27.3384 -6.26246 -16.977 4.79201
-81.5175 -21.3761 -24.4294 -14.8551 -19.3336 4.76274
-72.7631 -34.4764 -38.4502 -12.2633 -18.5573 4.80143
